# Incandescent Anti-Insect Lamp
#
#    Spectral data Copyright (c) 1998-2009 by I.N. Galidakis          
#                                                                     
#    Extracted from page:                                             
#    <http://ioannis.virtualcomposer2000.com/spectroscope/amici.html> 
#                                                                     
#    This data is distributed in the hope that it will be useful,     
#    but WITHOUT ANY WARRANTY; without even the implied warranty of   
#    MERCHANTABILITY or FITNESS FOR A PARTICULAR PURPOSE.  See the    
#    CCL 3.0 Creative Commons License 3.0 for more details.           
#                                                                     
#    You should have received a copy of the CCL 3.0                   
#    along with this program.  If not, see:                           
#    <http://creativecommons.org/licenses/by/3.0/>.                   
#
404.756989	0.003620
404.901001	0.004424
405.054993	0.004877
405.221008	0.004525
405.398010	0.004324
405.584991	0.004173
405.782013	0.003821
405.989990	0.003821
406.208008	0.003972
406.436005	0.003771
406.674011	0.003419
406.920990	0.003268
407.177002	0.003017
407.442993	0.002715
407.717010	0.002765
408.000000	0.003268
408.291992	0.004123
408.592010	0.004726
408.901001	0.005530
409.217987	0.004625
409.541992	0.004022
409.875000	0.003771
410.214996	0.003771
410.562988	0.004525
410.917999	0.004525
411.279999	0.004877
411.649994	0.004123
412.026001	0.003821
412.408997	0.004374
412.799011	0.004022
413.195007	0.003771
413.596985	0.003469
414.006012	0.003821
414.420990	0.005128
414.842010	0.003821
415.269012	0.004877
415.701996	0.005279
416.140015	0.004877
416.584015	0.003720
417.032990	0.003419
417.487000	0.003972
417.946991	0.005128
418.411987	0.003821
418.881989	0.004374
419.355988	0.005028
419.835999	0.004525
420.320007	0.005480
420.808990	0.006335
421.302002	0.005279
421.799988	0.004927
422.302002	0.004173
422.808990	0.004525
423.319000	0.005128
423.834015	0.004877
424.352997	0.004877
424.876007	0.004827
425.402008	0.004223
425.933014	0.004223
426.467010	0.004676
427.005005	0.005078
427.546997	0.005581
428.092010	0.005329
428.640991	0.004827
429.194000	0.005380
429.750000	0.005933
430.308990	0.007491
430.872009	0.005380
431.437988	0.004273
432.006989	0.004525
432.579010	0.005430
433.154999	0.006687
433.734009	0.006938
434.316010	0.005732
434.901001	0.004676
435.489990	0.005530
436.080994	0.005380
436.675995	0.006184
437.273987	0.006938
437.873993	0.007139
438.477997	0.007944
439.084991	0.009502
439.695007	0.010709
440.307007	0.010860
440.923004	0.010357
441.541992	0.011011
442.164001	0.011513
442.789001	0.011362
443.416992	0.011463
444.048004	0.013273
444.683014	0.016541
445.320007	0.012167
445.959991	0.013474
446.604004	0.014932
447.251007	0.014530
447.901001	0.015435
448.553986	0.016491
449.209991	0.016893
449.869995	0.016591
450.532990	0.020312
451.200012	0.020965
451.869995	0.020362
452.542999	0.021267
453.220001	0.022574
453.901001	0.025239
454.584991	0.026043
455.273010	0.025189
455.964996	0.029965
456.660004	0.029663
457.359009	0.030317
458.062988	0.032881
458.769989	0.035093
459.480988	0.036149
460.196991	0.039920
460.915985	0.041880
461.640015	0.045953
462.368988	0.046606
463.101990	0.051181
463.838989	0.054399
464.580994	0.054902
465.328003	0.056913
466.079987	0.060030
466.835999	0.060885
467.597992	0.063198
468.364990	0.062996
469.136993	0.069331
469.914001	0.073756
470.696991	0.073957
471.484985	0.075867
472.278992	0.077828
473.079010	0.075515
473.885010	0.077778
474.696991	0.087330
475.515015	0.088537
476.338989	0.092760
477.170013	0.099598
478.007996	0.105229
478.851990	0.110860
479.703003	0.109402
480.559998	0.110558
481.424988	0.120865
482.298004	0.117748
483.177002	0.116139
484.063995	0.120060
484.959015	0.125591
485.862000	0.124887
486.773010	0.129110
487.691986	0.131523
488.619995	0.134490
489.554993	0.135646
490.500000	0.136099
491.453003	0.139115
492.415985	0.141730
493.388000	0.144997
494.368988	0.154399
495.359009	0.151383
496.359985	0.145299
497.369995	0.152640
498.390991	0.155405
499.420990	0.159125
500.463013	0.161890
501.515015	0.174208
502.578003	0.191554
503.652008	0.211363
504.737000	0.230367
505.834015	0.252539
506.942993	0.272851
508.062988	0.294620
509.196014	0.319507
510.341003	0.343439
511.498993	0.360634
512.669006	0.382805
513.853027	0.397335
515.049011	0.415938
516.260010	0.435646
517.484009	0.456260
518.721985	0.471393
519.973999	0.485219
521.239990	0.493012
522.521973	0.501760
523.817993	0.511111
525.129028	0.512770
526.455994	0.516038
527.797974	0.522222
529.156982	0.514731
530.531006	0.512267
531.921997	0.504927
533.330017	0.499598
534.755005	0.497788
536.197021	0.491252
537.656006	0.476722
539.132996	0.465460
540.629028	0.464002
542.142029	0.454500
543.674988	0.454500
545.226013	0.455154
546.796021	0.453545
548.385986	0.452238
549.994995	0.450176
551.625000	0.451785
553.275024	0.454450
554.945984	0.454802
556.637024	0.456008
558.349976	0.466064
560.083984	0.469885
561.841003	0.464354
563.619019	0.460533
565.419983	0.448969
567.244019	0.435646
569.091003	0.428708
570.960999	0.420814
572.854980	0.416189
574.773010	0.409050
576.716003	0.414228
578.682983	0.424937
580.676025	0.431473
582.693970	0.439618
584.737000	0.456008
586.807007	0.467773
588.903015	0.486777
591.026001	0.494922
593.176025	0.513625
595.354004	0.529713
597.559021	0.540070
599.793030	0.546355
602.054993	0.554650
604.346985	0.564153
606.666992	0.571242
609.017029	0.571242
611.398010	0.580492
613.807983	0.590196
616.250000	0.593514
618.721985	0.599950
621.226013	0.602463
623.762024	0.604223
626.330017	0.601960
628.931030	0.599849
631.565002	0.594922
634.232971	0.593162
636.934021	0.596933
639.669983	0.600804
642.440002	0.595475
645.245972	0.598743
648.085999	0.598190
650.963013	0.589140
653.875977	0.565309
656.825989	0.517647
659.812988	0.462846
662.836975	0.383912
665.898987	0.324937
669.000000	0.269231
