# PHILIPS spectral Cadmium Lamp - Continuous Cadmium low pressure thermionic discharge
#
#    Spectral data Copyright (c) 1998-2009 by I.N. Galidakis          
#                                                                     
#    Extracted from page:                                             
#    <http://ioannis.virtualcomposer2000.com/spectroscope/amici.html> 
#                                                                     
#    This data is distributed in the hope that it will be useful,     
#    but WITHOUT ANY WARRANTY; without even the implied warranty of   
#    MERCHANTABILITY or FITNESS FOR A PARTICULAR PURPOSE.  See the    
#    CCL 3.0 Creative Commons License 3.0 for more details.           
#                                                                     
#    You should have received a copy of the CCL 3.0                   
#    along with this program.  If not, see:                           
#    <http://creativecommons.org/licenses/by/3.0/>.                   
#
404.756989	0.003268
404.901001	0.003268
405.054993	0.003922
405.221008	0.003922
405.398010	0.003922
405.584991	0.003922
405.782013	0.003922
405.989990	0.003922
406.208008	0.003922
406.436005	0.003922
406.674011	0.002514
406.920990	0.002514
407.177002	0.003117
407.442993	0.003117
407.717010	0.003117
408.000000	0.003117
408.291992	0.002514
408.592010	0.002514
408.901001	0.003469
409.217987	0.003670
409.541992	0.003419
409.875000	0.003419
410.214996	0.003469
410.562988	0.003570
410.917999	0.003922
411.279999	0.003771
411.649994	0.004324
412.026001	0.004223
412.408997	0.004123
412.799011	0.003369
413.195007	0.003972
413.596985	0.004877
414.006012	0.004877
414.420990	0.005681
414.842010	0.006586
415.269012	0.006687
415.701996	0.007642
416.140015	0.007391
416.584015	0.007240
417.032990	0.007743
417.487000	0.008547
417.946991	0.009050
418.411987	0.009251
418.881989	0.010558
419.355988	0.012268
419.835999	0.012871
420.320007	0.012469
420.808990	0.013876
421.302002	0.014329
421.799988	0.015737
422.302002	0.017044
422.808990	0.020060
423.319000	0.022624
423.834015	0.024937
424.352997	0.028054
424.876007	0.028909
425.402008	0.032780
425.933014	0.033987
426.467010	0.042433
427.005005	0.043992
427.546997	0.049975
428.092010	0.053293
428.640991	0.054651
429.194000	0.058673
429.750000	0.066013
430.308990	0.070840
430.872009	0.077778
431.437988	0.078582
432.006989	0.081096
432.579010	0.084213
433.154999	0.089693
433.734009	0.096129
434.316010	0.100101
434.901001	0.103369
435.489990	0.110709
436.080994	0.111714
436.675995	0.113826
437.273987	0.118401
437.873993	0.123529
438.477997	0.128155
439.084991	0.133333
439.695007	0.137205
440.307007	0.145953
440.923004	0.174057
441.541992	0.226697
442.164001	0.265158
442.789001	0.255556
443.416992	0.199497
444.048004	0.156863
444.683014	0.156461
445.320007	0.148768
445.959991	0.150930
446.604004	0.148517
447.251007	0.146807
447.901001	0.144143
448.553986	0.141780
449.209991	0.144042
449.869995	0.143087
450.532990	0.136149
451.200012	0.134490
451.869995	0.131725
452.542999	0.130266
453.220001	0.130970
453.901001	0.133082
454.584991	0.135093
455.273010	0.136601
455.964996	0.135897
456.660004	0.136048
457.359009	0.137355
458.062988	0.136652
458.769989	0.139115
459.480988	0.142685
460.196991	0.145551
460.915985	0.154500
461.640015	0.161287
462.368988	0.171544
463.101990	0.192257
463.838989	0.208195
464.580994	0.257717
465.328003	0.303821
466.079987	0.361740
466.835999	0.399749
467.597992	0.536903
468.364990	0.755103
469.136993	0.809803
469.914001	0.729915
470.696991	0.363751
471.484985	0.258069
472.278992	0.276169
473.079010	0.254852
473.885010	0.251081
474.696991	0.253997
475.515015	0.277878
476.338989	0.314228
477.170013	0.342232
478.007996	0.349422
478.851990	0.521719
479.703003	0.768627
480.559998	0.818200
481.424988	0.793263
482.298004	0.514279
483.177002	0.249472
484.063995	0.231272
484.959015	0.215083
485.862000	0.169633
486.773010	0.162293
487.691986	0.142232
488.619995	0.130669
489.554993	0.119859
490.500000	0.103268
491.453003	0.090397
492.415985	0.085169
493.388000	0.079839
494.368988	0.075867
495.359009	0.083409
496.359985	0.086777
497.369995	0.096883
498.390991	0.102966
499.420990	0.111966
500.463013	0.126395
501.515015	0.152036
502.578003	0.181398
503.652008	0.201257
504.737000	0.224334
505.834015	0.473906
506.942993	0.764756
508.062988	0.819507
509.196014	0.741126
510.341003	0.395023
511.498993	0.176068
512.669006	0.172046
513.853027	0.205732
515.049011	0.215033
516.260010	0.124485
517.484009	0.089341
518.721985	0.083157
519.973999	0.068879
521.239990	0.065913
522.521973	0.062091
523.817993	0.055857
525.129028	0.047964
526.455994	0.044595
527.797974	0.045098
529.156982	0.044092
530.531006	0.040623
531.921997	0.039719
533.330017	0.038411
534.755005	0.035847
536.197021	0.033937
537.656006	0.034942
539.132996	0.030719
540.629028	0.026194
542.142029	0.026747
543.674988	0.025993
545.226013	0.025390
546.796021	0.024686
548.385986	0.023630
549.994995	0.020161
551.625000	0.018200
553.275024	0.016943
554.945984	0.015636
556.637024	0.014882
558.349976	0.013072
560.083984	0.013675
561.841003	0.014128
563.619019	0.012318
565.419983	0.010508
567.244019	0.010709
569.091003	0.011815
570.960999	0.012670
572.854980	0.010156
574.773010	0.008698
576.716003	0.008195
578.682983	0.007290
580.676025	0.007039
582.693970	0.007592
584.737000	0.007592
586.807007	0.008095
588.903015	0.008597
591.026001	0.008044
593.176025	0.008195
595.354004	0.008396
597.559021	0.008095
599.793030	0.006838
602.054993	0.006787
604.346985	0.008648
606.666992	0.009603
609.017029	0.009804
611.398010	0.010659
613.807983	0.009804
616.250000	0.007944
618.721985	0.007743
621.226013	0.009251
623.762024	0.010709
626.330017	0.018150
628.931030	0.021820
631.565002	0.043590
634.232971	0.086325
636.934021	0.168527
639.669983	0.301408
642.440002	0.517898
645.245972	0.514128
648.085999	0.190447
650.963013	0.047159
653.875977	0.013725
656.825989	0.013424
659.812988	0.006234
662.836975	0.010759
665.898987	0.008145
669.000000	0.007441
