# Monochromatic emission from a Green Laser diode.
#
#    Spectral data Copyright (c) 1998-2009 by I.N. Galidakis          
#                                                                     
#    Extracted from page:                                             
#    <http://ioannis.virtualcomposer2000.com/spectroscope/amici.html> 
#                                                                     
#    This data is distributed in the hope that it will be useful,     
#    but WITHOUT ANY WARRANTY; without even the implied warranty of   
#    MERCHANTABILITY or FITNESS FOR A PARTICULAR PURPOSE.  See the    
#    CCL 3.0 Creative Commons License 3.0 for more details.           
#                                                                     
#    You should have received a copy of the CCL 3.0                   
#    along with this program.  If not, see:                           
#    <http://creativecommons.org/licenses/by/3.0/>.                   
#
404.756989	0.000000
404.901001	0.000000
405.054993	0.002715
405.221008	0.002715
405.398010	0.003117
405.584991	0.003117
405.782013	0.003922
405.989990	0.003922
406.208008	0.003519
406.436005	0.003519
406.674011	0.003318
406.920990	0.003318
407.177002	0.003318
407.442993	0.003318
407.717010	0.003318
408.000000	0.003318
408.291992	0.003318
408.592010	0.003318
408.901001	0.003117
409.217987	0.003117
409.541992	0.003519
409.875000	0.003519
410.214996	0.003519
410.562988	0.003519
410.917999	0.003117
411.279999	0.003117
411.649994	0.002916
412.026001	0.002916
412.408997	0.002916
412.799011	0.002916
413.195007	0.003519
413.596985	0.003519
414.006012	0.003519
414.420990	0.003519
414.842010	0.003720
415.269012	0.003720
415.701996	0.003720
416.140015	0.003720
416.584015	0.003720
417.032990	0.003720
417.487000	0.003720
417.946991	0.003720
418.411987	0.003620
418.881989	0.003268
419.355988	0.003117
419.835999	0.003117
420.320007	0.003419
420.808990	0.003519
421.302002	0.003670
421.799988	0.003922
422.302002	0.003318
422.808990	0.003318
423.319000	0.003369
423.834015	0.003419
424.352997	0.003519
424.876007	0.003519
425.402008	0.003570
425.933014	0.003620
426.467010	0.003771
427.005005	0.003771
427.546997	0.003821
428.092010	0.003922
428.640991	0.004022
429.194000	0.004072
429.750000	0.004173
430.308990	0.004173
430.872009	0.004223
431.437988	0.003922
432.006989	0.004374
432.579010	0.004575
433.154999	0.004625
433.734009	0.004475
434.316010	0.004173
434.901001	0.004575
435.489990	0.004424
436.080994	0.004173
436.675995	0.004123
437.273987	0.003771
437.873993	0.003821
438.477997	0.004173
439.084991	0.004273
439.695007	0.004575
440.307007	0.004776
440.923004	0.004273
441.541992	0.004273
442.164001	0.004324
442.789001	0.004676
443.416992	0.004475
444.048004	0.003922
444.683014	0.003922
445.320007	0.004223
445.959991	0.003972
446.604004	0.003771
447.251007	0.003821
447.901001	0.003922
448.553986	0.004022
449.209991	0.004374
449.869995	0.004575
450.532990	0.004475
451.200012	0.003922
451.869995	0.004424
452.542999	0.006385
453.220001	0.008849
453.901001	0.012368
454.584991	0.014982
455.273010	0.016943
455.964996	0.020965
456.660004	0.021619
457.359009	0.022172
458.062988	0.023127
458.769989	0.020613
459.480988	0.018502
460.196991	0.015737
460.915985	0.013826
461.640015	0.010809
462.368988	0.010005
463.101990	0.009000
463.838989	0.006838
464.580994	0.006838
465.328003	0.005329
466.079987	0.004927
466.835999	0.004676
467.597992	0.004525
468.364990	0.004525
469.136993	0.004324
469.914001	0.004324
470.696991	0.004324
471.484985	0.004324
472.278992	0.004324
473.079010	0.004324
473.885010	0.005530
474.696991	0.005530
475.515015	0.005530
476.338989	0.005530
477.170013	0.005530
478.007996	0.005530
478.851990	0.005530
479.703003	0.005530
480.559998	0.007843
481.424988	0.007893
482.298004	0.008044
483.177002	0.008044
484.063995	0.008497
484.959015	0.008597
485.862000	0.009000
486.773010	0.009050
487.691986	0.011111
488.619995	0.011161
489.554993	0.012820
490.500000	0.012921
491.453003	0.014530
492.415985	0.015737
493.388000	0.016692
494.368988	0.016792
495.359009	0.018854
496.359985	0.018954
497.369995	0.020211
498.390991	0.022826
499.420990	0.023982
500.463013	0.027099
501.515015	0.029160
502.578003	0.030216
503.652008	0.036501
504.737000	0.041378
505.834015	0.048969
506.942993	0.054098
508.062988	0.060332
509.196014	0.069935
510.341003	0.079186
511.498993	0.087431
512.669006	0.102514
513.853027	0.112921
515.049011	0.132026
516.260010	0.151986
517.484009	0.171795
518.721985	0.196129
519.973999	0.230367
521.239990	0.261538
522.521973	0.304575
523.817993	0.363851
525.129028	0.434289
526.455994	0.507290
527.797974	0.588889
529.156982	0.650076
530.531006	0.702917
531.921997	0.971644
533.330017	0.939719
534.755005	0.641930
536.197021	0.576320
537.656006	0.510055
539.132996	0.428909
540.629028	0.359728
542.142029	0.295676
543.674988	0.248467
545.226013	0.206285
546.796021	0.185219
548.385986	0.160181
549.994995	0.139316
551.625000	0.124434
553.275024	0.111966
554.945984	0.098944
556.637024	0.089140
558.349976	0.078984
560.083984	0.073555
561.841003	0.065963
563.619019	0.058773
565.419983	0.053796
567.244019	0.049824
569.091003	0.044997
570.960999	0.040875
572.854980	0.037004
574.773010	0.035395
576.716003	0.033736
578.682983	0.030920
580.676025	0.026848
582.693970	0.024334
584.737000	0.023730
586.807007	0.022524
588.903015	0.020815
591.026001	0.020513
593.176025	0.019558
595.354004	0.019105
597.559021	0.017245
599.793030	0.016943
602.054993	0.014480
604.346985	0.014329
606.666992	0.013675
609.017029	0.013625
611.398010	0.013524
613.807983	0.012519
616.250000	0.012117
618.721985	0.011966
621.226013	0.011966
623.762024	0.011916
626.330017	0.011262
628.931030	0.011262
631.565002	0.011262
634.232971	0.011262
636.934021	0.011262
639.669983	0.011262
642.440002	0.011262
645.245972	0.011262
648.085999	0.011262
650.963013	0.011262
653.875977	0.011262
656.825989	0.011262
659.812988	0.011262
662.836975	0.011262
665.898987	0.011262
669.000000	0.011262
