# Laptop LCD Screen
#
#    Spectral data Copyright (c) 1998-2009 by I.N. Galidakis          
#                                                                     
#    Extracted from page:                                             
#    <http://ioannis.virtualcomposer2000.com/spectroscope/amici.html> 
#                                                                     
#    This data is distributed in the hope that it will be useful,     
#    but WITHOUT ANY WARRANTY; without even the implied warranty of   
#    MERCHANTABILITY or FITNESS FOR A PARTICULAR PURPOSE.  See the    
#    CCL 3.0 Creative Commons License 3.0 for more details.           
#                                                                     
#    You should have received a copy of the CCL 3.0                   
#    along with this program.  If not, see:                           
#    <http://creativecommons.org/licenses/by/3.0/>.                   
#
404.756989	0.015686
404.901001	0.015686
405.054993	0.014480
405.221008	0.014480
405.398010	0.011161
405.584991	0.007843
405.782013	0.007843
405.989990	0.004525
406.208008	0.001207
406.436005	0.001207
406.674011	0.000000
406.920990	0.000000
407.177002	0.000000
407.442993	0.000000
407.717010	0.000000
408.000000	0.000000
408.291992	0.000000
408.592010	0.000000
408.901001	0.000000
409.217987	0.000000
409.541992	0.000000
409.875000	0.000000
410.214996	0.000000
410.562988	0.000000
410.917999	0.000000
411.279999	0.000000
411.649994	0.000000
412.026001	0.000000
412.408997	0.000000
412.799011	0.000000
413.195007	0.000000
413.596985	0.000000
414.006012	0.000000
414.420990	0.000000
414.842010	0.002011
415.269012	0.002011
415.701996	0.002011
416.140015	0.002011
416.584015	0.002011
417.032990	0.002413
417.487000	0.002815
417.946991	0.002815
418.411987	0.008245
418.881989	0.008245
419.355988	0.008648
419.835999	0.009452
420.320007	0.011865
420.808990	0.012670
421.302002	0.013474
421.799988	0.013474
422.302002	0.019457
422.808990	0.019457
423.319000	0.023881
423.834015	0.026244
424.352997	0.027149
424.876007	0.029713
425.402008	0.032630
425.933014	0.033585
426.467010	0.037305
427.005005	0.038562
427.546997	0.049824
428.092010	0.053343
428.640991	0.046003
429.194000	0.048567
429.750000	0.057818
430.308990	0.064002
430.872009	0.078582
431.437988	0.084314
432.006989	0.073504
432.579010	0.074309
433.154999	0.094771
433.734009	0.129110
434.316010	0.184615
434.901001	0.253695
435.489990	0.473354
436.080994	0.593614
436.675995	0.561086
437.273987	0.355204
437.873993	0.200503
438.477997	0.176672
439.084991	0.160583
439.695007	0.161136
440.307007	0.178331
440.923004	0.186928
441.541992	0.199547
442.164001	0.208044
442.789001	0.215234
443.416992	0.222474
444.048004	0.229462
444.683014	0.236451
445.320007	0.258069
445.959991	0.260885
446.604004	0.266114
447.251007	0.270588
447.901001	0.274610
448.553986	0.283409
449.209991	0.289040
449.869995	0.295777
450.532990	0.300754
451.200012	0.307843
451.869995	0.315083
452.542999	0.323781
453.220001	0.328859
453.901001	0.331624
454.584991	0.337356
455.273010	0.337657
455.964996	0.338964
456.660004	0.339970
457.359009	0.340423
458.062988	0.341026
458.769989	0.341981
459.480988	0.340372
460.196991	0.338261
460.915985	0.337004
461.640015	0.342082
462.368988	0.342836
463.101990	0.345098
463.838989	0.346355
464.580994	0.348567
465.328003	0.350327
466.079987	0.350880
466.835999	0.351634
467.597992	0.361539
468.364990	0.358572
469.136993	0.362343
469.914001	0.360986
470.696991	0.363600
471.484985	0.361338
472.278992	0.359125
473.079010	0.355908
473.885010	0.354952
474.696991	0.350981
475.515015	0.349120
476.338989	0.348718
477.170013	0.351031
478.007996	0.348668
478.851990	0.353695
479.703003	0.347310
480.559998	0.341579
481.424988	0.339668
482.298004	0.354902
483.177002	0.373806
484.063995	0.405832
484.959015	0.426596
485.862000	0.446908
486.773010	0.453193
487.691986	0.448668
488.619995	0.426194
489.554993	0.403519
490.500000	0.378029
491.453003	0.358070
492.415985	0.335847
493.388000	0.318351
494.368988	0.288235
495.359009	0.274309
496.359985	0.249170
497.369995	0.234590
498.390991	0.195626
499.420990	0.170940
500.463013	0.151936
501.515015	0.128255
502.578003	0.116792
503.652008	0.104676
504.737000	0.100251
505.834015	0.090900
506.942993	0.086325
508.062988	0.083107
509.196014	0.079940
510.341003	0.079186
511.498993	0.078230
512.669006	0.070689
513.853027	0.069030
515.049011	0.066667
516.260010	0.063248
517.484009	0.058220
518.721985	0.054248
519.973999	0.049774
521.239990	0.048115
522.521973	0.042886
523.817993	0.047310
525.129028	0.048165
526.455994	0.041126
527.797974	0.042031
529.156982	0.054349
530.531006	0.074610
531.921997	0.096078
533.330017	0.127552
534.755005	0.142886
536.197021	0.258270
537.656006	0.315787
539.132996	0.378029
540.629028	0.463248
542.142029	0.465712
543.674988	0.454751
545.226013	0.501911
546.796021	0.378431
548.385986	0.351282
549.994995	0.321870
551.625000	0.250478
553.275024	0.168829
554.945984	0.085470
556.637024	0.060734
558.349976	0.048969
560.083984	0.042383
561.841003	0.031423
563.619019	0.027853
565.419983	0.022524
567.244019	0.023027
569.091003	0.028456
570.960999	0.032227
572.854980	0.053746
574.773010	0.086727
576.716003	0.236249
578.682983	0.287833
580.676025	0.311413
582.693970	0.389090
584.737000	0.461891
586.807007	0.491001
588.903015	0.501659
591.026001	0.420965
593.176025	0.437205
595.354004	0.331624
597.559021	0.279135
599.793030	0.315183
602.054993	0.243540
604.346985	0.239065
606.666992	0.297587
609.017029	0.333836
611.398010	0.609401
613.807983	0.580492
616.250000	0.379286
618.721985	0.361488
621.226013	0.323077
623.762024	0.281498
626.330017	0.200955
628.931030	0.177124
631.565002	0.153142
634.232971	0.097536
636.934021	0.041428
639.669983	0.021367
642.440002	0.018954
645.245972	0.020362
648.085999	0.019105
650.963013	0.018250
653.875977	0.013323
656.825989	0.008396
659.812988	0.005028
662.836975	0.004525
665.898987	0.003821
669.000000	0.003821
