# Regular High Pressure Sodium Lamp, warmup after 10-12 sec
#
#    Spectral data Copyright (c) 1998-2009 by I.N. Galidakis          
#                                                                     
#    Extracted from page:                                             
#    <http://ioannis.virtualcomposer2000.com/spectroscope/amici.html> 
#                                                                     
#    This data is distributed in the hope that it will be useful,     
#    but WITHOUT ANY WARRANTY; without even the implied warranty of   
#    MERCHANTABILITY or FITNESS FOR A PARTICULAR PURPOSE.  See the    
#    CCL 3.0 Creative Commons License 3.0 for more details.           
#                                                                     
#    You should have received a copy of the CCL 3.0                   
#    along with this program.  If not, see:                           
#    <http://creativecommons.org/licenses/by/3.0/>.                   
#
404.756989	0.015686
404.901001	0.015686
405.054993	0.007843
405.221008	0.007843
405.398010	0.007843
405.584991	0.007843
405.782013	0.007843
405.989990	0.007843
406.208008	0.007843
406.436005	0.007843
406.674011	0.000000
406.920990	0.000000
407.177002	0.000000
407.442993	0.000000
407.717010	0.000000
408.000000	0.000000
408.291992	0.000000
408.592010	0.000000
408.901001	0.000000
409.217987	0.000000
409.541992	0.000000
409.875000	0.000000
410.214996	0.000000
410.562988	0.000000
410.917999	0.000000
411.279999	0.000000
411.649994	0.000000
412.026001	0.000000
412.408997	0.000000
412.799011	0.000000
413.195007	0.000000
413.596985	0.000000
414.006012	0.000000
414.420990	0.000000
414.842010	0.000000
415.269012	0.000000
415.701996	0.000000
416.140015	0.000000
416.584015	0.000000
417.032990	0.000000
417.487000	0.000000
417.946991	0.000000
418.411987	0.000000
418.881989	0.000000
419.355988	0.000000
419.835999	0.000000
420.320007	0.000000
420.808990	0.000000
421.302002	0.000000
421.799988	0.000000
422.302002	0.000000
422.808990	0.000000
423.319000	0.000000
423.834015	0.000000
424.352997	0.000000
424.876007	0.000000
425.402008	0.000000
425.933014	0.000000
426.467010	0.001408
427.005005	0.001408
427.546997	0.003117
428.092010	0.004726
428.640991	0.005631
429.194000	0.005631
429.750000	0.003218
430.308990	0.001609
430.872009	0.004022
431.437988	0.000905
432.006989	0.004072
432.579010	0.021971
433.154999	0.030166
433.734009	0.041880
434.316010	0.101860
434.901001	0.169382
435.489990	0.108145
436.080994	0.050880
436.675995	0.017446
437.273987	0.007491
437.873993	0.009251
438.477997	0.002011
439.084991	0.001006
439.695007	0.003017
440.307007	0.000000
440.923004	0.003218
441.541992	0.003218
442.164001	0.003218
442.789001	0.003218
443.416992	0.001609
444.048004	0.000000
444.683014	0.000000
445.320007	0.000000
445.959991	0.000000
446.604004	0.000000
447.251007	0.000000
447.901001	0.000000
448.553986	0.000000
449.209991	0.000000
449.869995	0.000000
450.532990	0.000000
451.200012	0.000000
451.869995	0.000000
452.542999	0.000000
453.220001	0.000000
453.901001	0.000000
454.584991	0.000000
455.273010	0.000000
455.964996	0.001609
456.660004	0.001609
457.359009	0.001609
458.062988	0.001609
458.769989	0.001609
459.480988	0.001609
460.196991	0.001609
460.915985	0.001609
461.640015	0.003821
462.368988	0.007139
463.101990	0.008044
463.838989	0.003218
464.580994	0.001911
465.328003	0.003821
466.079987	0.016491
466.835999	0.029160
467.597992	0.026898
468.364990	0.021669
469.136993	0.013977
469.914001	0.010055
470.696991	0.008798
471.484985	0.011413
472.278992	0.017748
473.079010	0.021669
473.885010	0.024183
474.696991	0.020362
475.515015	0.016541
476.338989	0.016541
477.170013	0.020262
478.007996	0.024284
478.851990	0.031926
479.703003	0.039367
480.559998	0.056963
481.424988	0.047360
482.298004	0.049824
483.177002	0.062795
484.063995	0.061941
484.959015	0.047009
485.862000	0.040070
486.773010	0.048215
487.691986	0.046657
488.619995	0.053997
489.554993	0.051735
490.500000	0.126848
491.453003	0.166365
492.415985	0.094419
493.388000	0.058773
494.368988	0.073052
495.359009	0.068426
496.359985	0.112921
497.369995	0.137406
498.390991	0.105128
499.420990	0.080443
500.463013	0.096581
501.515015	0.110508
502.578003	0.114982
503.652008	0.110910
504.737000	0.117345
505.834015	0.124284
506.942993	0.123127
508.062988	0.127401
509.196014	0.138462
510.341003	0.151835
511.498993	0.166466
512.669006	0.178633
513.853027	0.189040
515.049011	0.198089
516.260010	0.198441
517.484009	0.193665
518.721985	0.197034
519.973999	0.205279
521.239990	0.215938
522.521973	0.223278
523.817993	0.226999
525.129028	0.231775
526.455994	0.239920
527.797974	0.245148
529.156982	0.252086
530.531006	0.257014
531.921997	0.261086
533.330017	0.274610
534.755005	0.298441
536.197021	0.317697
537.656006	0.316692
539.132996	0.341478
540.629028	0.310759
542.142029	0.392207
543.674988	0.785118
545.226013	0.820512
546.796021	0.715435
548.385986	0.417396
549.994995	0.274510
551.625000	0.266214
553.275024	0.287481
554.945984	0.274510
556.637024	0.279085
558.349976	0.260533
560.083984	0.249271
561.841003	0.272448
563.619019	0.253293
565.419983	0.270739
567.244019	0.404826
569.091003	0.462444
570.960999	0.326596
572.854980	0.280644
574.773010	0.422172
576.716003	0.501810
578.682983	0.462343
580.676025	0.473505
582.693970	0.430820
584.737000	0.593816
586.807007	0.882153
588.903015	0.883560
591.026001	0.814479
593.176025	0.672600
595.354004	0.531573
597.559021	0.445098
599.793030	0.467069
602.054993	0.484817
604.346985	0.498844
606.666992	0.495777
609.017029	0.497185
611.398010	0.500855
613.807983	0.490649
616.250000	0.495676
618.721985	0.497486
621.226013	0.483610
623.762024	0.458120
626.330017	0.441730
628.931030	0.445501
631.565002	0.442031
634.232971	0.431222
636.934021	0.408698
639.669983	0.385068
642.440002	0.382001
645.245972	0.385420
648.085999	0.387833
650.963013	0.390397
653.875977	0.361840
656.825989	0.344093
659.812988	0.301307
662.836975	0.259377
665.898987	0.196531
669.000000	0.086576
