# Neon green dye, bombarded with black light
#
#    Spectral data Copyright (c) 1998-2009 by I.N. Galidakis          
#                                                                     
#    Extracted from page:                                             
#    <http://ioannis.virtualcomposer2000.com/spectroscope/amici.html> 
#                                                                     
#    This data is distributed in the hope that it will be useful,     
#    but WITHOUT ANY WARRANTY; without even the implied warranty of   
#    MERCHANTABILITY or FITNESS FOR A PARTICULAR PURPOSE.  See the    
#    CCL 3.0 Creative Commons License 3.0 for more details.           
#                                                                     
#    You should have received a copy of the CCL 3.0                   
#    along with this program.  If not, see:                           
#    <http://creativecommons.org/licenses/by/3.0/>.                   
#
404.756989	0.068024
404.901001	0.076119
405.054993	0.164756
405.221008	0.280191
405.398010	0.427904
405.584991	0.492056
405.782013	0.438261
405.989990	0.283007
406.208008	0.137707
406.436005	0.112016
406.674011	0.105933
406.920990	0.096732
407.177002	0.118351
407.442993	0.150176
407.717010	0.182403
408.000000	0.182252
408.291992	0.150276
408.592010	0.119306
408.901001	0.110659
409.217987	0.111966
409.541992	0.117597
409.875000	0.122574
410.214996	0.133484
410.562988	0.136300
410.917999	0.139115
411.279999	0.139869
411.649994	0.157265
412.026001	0.160734
412.408997	0.167873
412.799011	0.170890
413.195007	0.175968
413.596985	0.175867
414.006012	0.178230
414.420990	0.176722
414.842010	0.183861
415.269012	0.185269
415.701996	0.191252
416.140015	0.192609
416.584015	0.197386
417.032990	0.199095
417.487000	0.202162
417.946991	0.203218
418.411987	0.210508
418.881989	0.209703
419.355988	0.211765
419.835999	0.213273
420.320007	0.218602
420.808990	0.220111
421.302002	0.224083
421.799988	0.223228
422.302002	0.230065
422.808990	0.230468
423.319000	0.235696
423.834015	0.237305
424.352997	0.242383
424.876007	0.243188
425.402008	0.246606
425.933014	0.247009
426.467010	0.254801
427.005005	0.254148
427.546997	0.258472
428.092010	0.259728
428.640991	0.257466
429.194000	0.257918
429.750000	0.262695
430.308990	0.264806
430.872009	0.270588
431.437988	0.271041
432.006989	0.255455
432.579010	0.252891
433.154999	0.265259
433.734009	0.292710
434.316010	0.338713
434.901001	0.387029
435.489990	0.465309
436.080994	0.524635
436.675995	0.707995
437.273987	0.759326
437.873993	0.466063
438.477997	0.276521
439.084991	0.244545
439.695007	0.224284
440.307007	0.203570
440.923004	0.199447
441.541992	0.205581
442.164001	0.200402
442.789001	0.180091
443.416992	0.176973
444.048004	0.178934
444.683014	0.177627
445.320007	0.159025
445.959991	0.157868
446.604004	0.156209
447.251007	0.154751
447.901001	0.150478
448.553986	0.148617
449.209991	0.145752
449.869995	0.145199
450.532990	0.138914
451.200012	0.139316
451.869995	0.136451
452.542999	0.136652
453.220001	0.132830
453.901001	0.132177
454.584991	0.131423
455.273010	0.130870
455.964996	0.124837
456.660004	0.125138
457.359009	0.123328
458.062988	0.123127
458.769989	0.119407
459.480988	0.117949
460.196991	0.115787
460.915985	0.114279
461.640015	0.109905
462.368988	0.109905
463.101990	0.109754
463.838989	0.110156
464.580994	0.108648
465.328003	0.109904
466.079987	0.111011
466.835999	0.111865
467.597992	0.118049
468.364990	0.120865
469.136993	0.124585
469.914001	0.128155
470.696991	0.131976
471.484985	0.135546
472.278992	0.145349
473.079010	0.151785
473.885010	0.162142
474.696991	0.167421
475.515015	0.179286
476.338989	0.187934
477.170013	0.202966
478.007996	0.216340
478.851990	0.230920
479.703003	0.236652
480.559998	0.241880
481.424988	0.245400
482.298004	0.262192
483.177002	0.270789
484.063995	0.281699
484.959015	0.284062
485.862000	0.287481
486.773010	0.284364
487.691986	0.281498
488.619995	0.276219
489.554993	0.275214
490.500000	0.269683
491.453003	0.266767
492.415985	0.260533
493.388000	0.266063
494.368988	0.259578
495.359009	0.248215
496.359985	0.236953
497.369995	0.237959
498.390991	0.226043
499.420990	0.230719
500.463013	0.239568
501.515015	0.247310
502.578003	0.254248
503.652008	0.260885
504.737000	0.265560
505.834015	0.269030
506.942993	0.275767
508.062988	0.281750
509.196014	0.285772
510.341003	0.284263
511.498993	0.288587
512.669006	0.290699
513.853027	0.290699
515.049011	0.286928
516.260010	0.283358
517.484009	0.278934
518.721985	0.276269
519.973999	0.272599
521.239990	0.268828
522.521973	0.262544
523.817993	0.253595
525.129028	0.241679
526.455994	0.230920
527.797974	0.219407
529.156982	0.202262
530.531006	0.186828
531.921997	0.173354
533.330017	0.155405
534.755005	0.142735
536.197021	0.127099
537.656006	0.111765
539.132996	0.095928
540.629028	0.083308
542.142029	0.072901
543.674988	0.067169
545.226013	0.056762
546.796021	0.051031
548.385986	0.045249
549.994995	0.036249
551.625000	0.028356
553.275024	0.022122
554.945984	0.017345
556.637024	0.013675
558.349976	0.009452
560.083984	0.009452
561.841003	0.008648
563.619019	0.007843
565.419983	0.007843
567.244019	0.007039
569.091003	0.006234
570.960999	0.006234
572.854980	0.000000
574.773010	0.000000
576.716003	0.000000
578.682983	0.000000
580.676025	0.000000
582.693970	0.000000
584.737000	0.000000
586.807007	0.000000
588.903015	0.000000
591.026001	0.000000
593.176025	0.000000
595.354004	0.000000
597.559021	0.000000
599.793030	0.000000
602.054993	0.000000
604.346985	0.000000
606.666992	0.007843
609.017029	0.007843
611.398010	0.007843
613.807983	0.007843
616.250000	0.007843
618.721985	0.007843
621.226013	0.007843
623.762024	0.007843
626.330017	0.007843
628.931030	0.007843
631.565002	0.007843
634.232971	0.007843
636.934021	0.007843
639.669983	0.007843
642.440002	0.007843
645.245972	0.007843
648.085999	0.007843
650.963013	0.007843
653.875977	0.007843
656.825989	0.007843
659.812988	0.007843
662.836975	0.007843
665.898987	0.007843
669.000000	0.007843
