# Carbon Arc Spectrum
#
#    Spectral data Copyright (c) 1998-2009 by I.N. Galidakis          
#                                                                     
#    Extracted from page:                                             
#    <http://ioannis.virtualcomposer2000.com/spectroscope/amici.html> 
#                                                                     
#    This data is distributed in the hope that it will be useful,     
#    but WITHOUT ANY WARRANTY; without even the implied warranty of   
#    MERCHANTABILITY or FITNESS FOR A PARTICULAR PURPOSE.  See the    
#    CCL 3.0 Creative Commons License 3.0 for more details.           
#                                                                     
#    You should have received a copy of the CCL 3.0                   
#    along with this program.  If not, see:                           
#    <http://creativecommons.org/licenses/by/3.0/>.                   
#
404.756989	0.140674
404.901001	0.163399
405.054993	0.187330
405.221008	0.175616
405.398010	0.140774
405.584991	0.110910
405.782013	0.086777
405.989990	0.078281
406.208008	0.077577
406.436005	0.078632
406.674011	0.078834
406.920990	0.080694
407.177002	0.085822
407.442993	0.091101
407.717010	0.094470
408.000000	0.091956
408.291992	0.084264
408.592010	0.078230
408.901001	0.077074
409.217987	0.078281
409.541992	0.081498
409.875000	0.085068
410.214996	0.087733
410.562988	0.091151
410.917999	0.094470
411.279999	0.095525
411.649994	0.110608
412.026001	0.116591
412.408997	0.124133
412.799011	0.128054
413.195007	0.130719
413.596985	0.138763
414.006012	0.143238
414.420990	0.147712
414.842010	0.149120
415.269012	0.155405
415.701996	0.162494
416.140015	0.170991
416.584015	0.176320
417.032990	0.179035
417.487000	0.181398
417.946991	0.181096
418.411987	0.198441
418.881989	0.207944
419.355988	0.282202
419.835999	0.360282
420.320007	0.433233
420.808990	0.511563
421.302002	0.603619
421.799988	0.613021
422.302002	0.534037
422.808990	0.366918
423.319000	0.273655
423.834015	0.264505
424.352997	0.245249
424.876007	0.256963
425.402008	0.282956
425.933014	0.287029
426.467010	0.324887
427.005005	0.342886
427.546997	0.387682
428.092010	0.420513
428.640991	0.452187
429.194000	0.504977
429.750000	0.545148
430.308990	0.521719
430.872009	0.445300
431.437988	0.410005
432.006989	0.370789
432.579010	0.339920
433.154999	0.321569
433.734009	0.316139
434.316010	0.322072
434.901001	0.326496
435.489990	0.340523
436.080994	0.358623
436.675995	0.378230
437.273987	0.400100
437.873993	0.437657
438.477997	0.471896
439.084991	0.448115
439.695007	0.412770
440.307007	0.441529
440.923004	0.493665
441.541992	0.498341
442.164001	0.524434
442.789001	0.558673
443.416992	0.578079
444.048004	0.592509
444.683014	0.536501
445.320007	0.558120
445.959991	0.639317
446.604004	0.600301
447.251007	0.469985
447.901001	0.446959
448.553986	0.456612
449.209991	0.439819
449.869995	0.461237
450.532990	0.474007
451.200012	0.482554
451.869995	0.511061
452.542999	0.511413
453.220001	0.554349
453.901001	0.604323
454.584991	0.571141
455.273010	0.539517
455.964996	0.567019
456.660004	0.534590
457.359009	0.516591
458.062988	0.532126
458.769989	0.549271
459.480988	0.533534
460.196991	0.548567
460.915985	0.596329
461.640015	0.601659
462.368988	0.575214
463.101990	0.568527
463.838989	0.582152
464.580994	0.596128
465.328003	0.595073
466.079987	0.609904
466.835999	0.613876
467.597992	0.608296
468.364990	0.596179
469.136993	0.600603
469.914001	0.581347
470.696991	0.579588
471.484985	0.573605
472.278992	0.567471
473.079010	0.548617
473.885010	0.534992
474.696991	0.528155
475.515015	0.572298
476.338989	0.570789
477.170013	0.531473
478.007996	0.531372
478.851990	0.549723
479.703003	0.496229
480.559998	0.489191
481.424988	0.499145
482.298004	0.501408
483.177002	0.479688
484.063995	0.477225
484.959015	0.463047
485.862000	0.458422
486.773010	0.471694
487.691986	0.464555
488.619995	0.441177
489.554993	0.422021
490.500000	0.414128
491.453003	0.424485
492.415985	0.421518
493.388000	0.423680
494.368988	0.404826
495.359009	0.386476
496.359985	0.388386
497.369995	0.407692
498.390991	0.413474
499.420990	0.407642
500.463013	0.402162
501.515015	0.405782
502.578003	0.415234
503.652008	0.403620
504.737000	0.409402
505.834015	0.417194
506.942993	0.426445
508.062988	0.432227
509.196014	0.439819
510.341003	0.445199
511.498993	0.450579
512.669006	0.449171
513.853027	0.460785
515.049011	0.472901
516.260010	0.483359
517.484009	0.475868
518.721985	0.464002
519.973999	0.461237
521.239990	0.464304
522.521973	0.456209
523.817993	0.477225
525.129028	0.485973
526.455994	0.465812
527.797974	0.455858
529.156982	0.463399
530.531006	0.467170
531.921997	0.462645
533.330017	0.463701
534.755005	0.463500
536.197021	0.462796
537.656006	0.461991
539.132996	0.461790
540.629028	0.461740
542.142029	0.461589
543.674988	0.461740
545.226013	0.463399
546.796021	0.463248
548.385986	0.462997
549.994995	0.462896
551.625000	0.462896
553.275024	0.462997
554.945984	0.463248
556.637024	0.463399
558.349976	0.474158
560.083984	0.469382
561.841003	0.467371
563.619019	0.466164
565.419983	0.463298
567.244019	0.466566
569.091003	0.463148
570.960999	0.442635
572.854980	0.443439
574.773010	0.419658
576.716003	0.447411
578.682983	0.477979
580.676025	0.499397
582.693970	0.486677
584.737000	0.472398
586.807007	0.553293
588.903015	0.610558
591.026001	0.516189
593.176025	0.490950
595.354004	0.538763
597.559021	0.554047
599.793030	0.567471
602.054993	0.581347
604.346985	0.574912
606.666992	0.591704
609.017029	0.588034
611.398010	0.576269
613.807983	0.566918
616.250000	0.558019
618.721985	0.543288
621.226013	0.527853
623.762024	0.513524
626.330017	0.507893
628.931030	0.505028
631.565002	0.498693
634.232971	0.489392
636.934021	0.479638
639.669983	0.468024
642.440002	0.458975
645.245972	0.446858
648.085999	0.440825
650.963013	0.402112
653.875977	0.367672
656.825989	0.323680
659.812988	0.282403
662.836975	0.219608
665.898987	0.145148
669.000000	0.107340
