# NARVA COLOURLUX plus daylight 20W/860 Daylight CFL Triphosphor Fluorescent
#
#    Spectral data Copyright (c) 1998-2009 by I.N. Galidakis          
#                                                                     
#    Extracted from page:                                             
#    <http://ioannis.virtualcomposer2000.com/spectroscope/amici.html> 
#                                                                     
#    This data is distributed in the hope that it will be useful,     
#    but WITHOUT ANY WARRANTY; without even the implied warranty of   
#    MERCHANTABILITY or FITNESS FOR A PARTICULAR PURPOSE.  See the    
#    CCL 3.0 Creative Commons License 3.0 for more details.           
#                                                                     
#    You should have received a copy of the CCL 3.0                   
#    along with this program.  If not, see:                           
#    <http://creativecommons.org/licenses/by/3.0/>.                   
#
404.756989	0.396531
404.901001	0.467723
405.054993	0.504525
405.221008	0.598743
405.398010	0.670689
405.584991	0.611664
405.782013	0.480744
405.989990	0.390447
406.208008	0.348517
406.436005	0.348014
406.674011	0.419558
406.920990	0.465058
407.177002	0.525641
407.442993	0.583610
407.717010	0.547561
408.000000	0.438060
408.291992	0.390096
408.592010	0.401709
408.901001	0.414279
409.217987	0.433384
409.541992	0.463600
409.875000	0.492056
410.214996	0.514982
410.562988	0.539115
410.917999	0.550377
411.279999	0.546707
411.649994	0.546455
412.026001	0.542081
412.408997	0.546304
412.799011	0.550930
413.195007	0.555505
413.596985	0.559376
414.006012	0.561689
414.420990	0.561438
414.842010	0.565410
415.269012	0.569532
415.701996	0.576923
416.140015	0.581800
416.584015	0.585570
417.032990	0.586123
417.487000	0.591151
417.946991	0.594771
418.411987	0.594117
418.881989	0.600854
419.355988	0.607994
419.835999	0.612468
420.320007	0.614580
420.808990	0.616139
421.302002	0.617496
421.799988	0.616943
422.302002	0.619054
422.808990	0.617245
423.319000	0.617245
423.834015	0.616742
424.352997	0.618803
424.876007	0.619608
425.402008	0.620161
425.933014	0.621166
426.467010	0.623379
427.005005	0.623379
427.546997	0.621519
428.092010	0.627452
428.640991	0.629412
429.194000	0.630921
429.750000	0.636401
430.308990	0.641076
430.872009	0.642937
431.437988	0.657265
432.006989	0.661589
432.579010	0.676119
433.154999	0.708095
433.734009	0.731926
434.316010	0.815183
434.901001	0.960785
435.489990	0.983510
436.080994	0.984113
436.675995	0.965259
437.273987	0.886929
437.873993	0.743841
438.477997	0.732077
439.084991	0.759678
439.695007	0.758874
440.307007	0.768124
440.923004	0.776470
441.541992	0.784263
442.164001	0.792307
442.789001	0.795626
443.416992	0.796782
444.048004	0.798944
444.683014	0.787380
445.320007	0.772549
445.959991	0.758874
446.604004	0.752891
447.251007	0.740473
447.901001	0.728960
448.553986	0.716240
449.209991	0.710357
449.869995	0.700202
450.532990	0.697336
451.200012	0.689995
451.869995	0.685772
452.542999	0.675113
453.220001	0.665360
453.901001	0.653193
454.584991	0.647260
455.273010	0.635244
455.964996	0.627301
456.660004	0.620563
457.359009	0.619256
458.062988	0.620111
458.769989	0.619256
459.480988	0.616290
460.196991	0.613776
460.915985	0.614077
461.640015	0.612317
462.368988	0.613222
463.101990	0.610558
463.838989	0.610156
464.580994	0.610105
465.328003	0.613474
466.079987	0.616139
466.835999	0.616491
467.597992	0.613726
468.364990	0.614228
469.136993	0.613927
469.914001	0.613424
470.696991	0.613474
471.484985	0.613675
472.278992	0.613977
473.079010	0.613625
473.885010	0.612268
474.696991	0.610608
475.515015	0.607491
476.338989	0.605078
477.170013	0.605078
478.007996	0.607391
478.851990	0.611262
479.703003	0.614027
480.559998	0.607290
481.424988	0.614229
482.298004	0.639669
483.177002	0.657517
484.063995	0.673102
484.959015	0.677527
485.862000	0.679287
486.773010	0.676270
487.691986	0.666164
488.619995	0.656561
489.554993	0.646054
490.500000	0.640523
491.453003	0.637809
492.415985	0.631323
493.388000	0.629161
494.368988	0.622323
495.359009	0.605781
496.359985	0.598391
497.369995	0.590196
498.390991	0.571342
499.420990	0.544495
500.463013	0.499799
501.515015	0.434892
502.578003	0.394671
503.652008	0.363550
504.737000	0.349874
505.834015	0.330066
506.942993	0.320614
508.062988	0.315687
509.196014	0.308949
510.341003	0.303268
511.498993	0.299950
512.669006	0.289140
513.853027	0.285872
515.049011	0.278683
516.260010	0.276973
517.484009	0.272499
518.721985	0.268376
519.973999	0.265661
521.239990	0.265762
522.521973	0.269683
523.817993	0.286928
525.129028	0.286526
526.455994	0.303117
527.797974	0.339819
529.156982	0.347260
530.531006	0.354751
531.921997	0.395525
533.330017	0.416189
534.755005	0.416541
536.197021	0.434741
537.656006	0.496078
539.132996	0.587481
540.629028	0.728055
542.142029	0.820362
543.674988	0.796933
545.226013	0.800905
546.796021	0.776018
548.385986	0.664002
549.994995	0.579537
551.625000	0.523630
553.275024	0.472499
554.945984	0.450981
556.637024	0.417848
558.349976	0.382202
560.083984	0.357718
561.841003	0.331322
563.619019	0.308296
565.419983	0.286777
567.244019	0.262293
569.091003	0.240070
570.960999	0.223429
572.854980	0.199196
574.773010	0.158723
576.716003	0.301911
578.682983	0.550678
580.676025	0.467522
582.693970	0.381750
584.737000	0.407390
586.807007	0.439115
588.903015	0.503017
591.026001	0.469985
593.176025	0.466466
595.354004	0.533232
597.559021	0.498240
599.793030	0.492207
602.054993	0.559628
604.346985	0.492760
606.666992	0.412368
609.017029	0.397134
611.398010	0.445852
613.807983	0.623379
616.250000	0.598290
618.721985	0.468225
621.226013	0.520412
623.762024	0.531674
626.330017	0.549170
628.931030	0.519356
631.565002	0.508597
634.232971	0.475516
636.934021	0.351684
639.669983	0.239517
642.440002	0.187029
645.245972	0.170739
648.085999	0.168175
650.963013	0.159829
653.875977	0.156159
656.825989	0.135445
659.812988	0.076269
662.836975	0.017798
665.898987	0.005279
669.000000	0.008245
