# Incandescent light 1.2.3 absorbed through ciel dye #42053
#
#    Spectral data Copyright (c) 1998-2009 by I.N. Galidakis          
#                                                                     
#    Extracted from page:                                             
#    <http://ioannis.virtualcomposer2000.com/spectroscope/amici.html> 
#                                                                     
#    This data is distributed in the hope that it will be useful,     
#    but WITHOUT ANY WARRANTY; without even the implied warranty of   
#    MERCHANTABILITY or FITNESS FOR A PARTICULAR PURPOSE.  See the    
#    CCL 3.0 Creative Commons License 3.0 for more details.           
#                                                                     
#    You should have received a copy of the CCL 3.0                   
#    along with this program.  If not, see:                           
#    <http://creativecommons.org/licenses/by/3.0/>.                   
#
404.756989	0.105882
404.901001	0.105882
405.054993	0.108094
405.221008	0.105882
405.398010	0.103570
405.584991	0.102363
405.782013	0.101156
405.989990	0.100654
406.208008	0.101760
406.436005	0.102765
406.674011	0.119507
406.920990	0.122725
407.177002	0.126043
407.442993	0.125842
407.717010	0.131624
408.000000	0.137707
408.291992	0.138964
408.592010	0.135998
408.901001	0.150628
409.217987	0.152740
409.541992	0.157466
409.875000	0.164756
410.214996	0.174409
410.562988	0.179588
410.917999	0.181800
411.279999	0.182303
411.649994	0.198090
412.026001	0.204927
412.408997	0.212318
412.799011	0.219105
413.195007	0.228808
413.596985	0.237355
414.006012	0.248617
414.420990	0.256159
414.842010	0.261538
415.269012	0.266767
415.701996	0.274459
416.140015	0.283710
416.584015	0.295676
417.032990	0.309754
417.487000	0.323278
417.946991	0.333786
418.411987	0.348014
418.881989	0.351181
419.355988	0.358069
419.835999	0.371393
420.320007	0.382654
420.808990	0.394822
421.302002	0.404424
421.799988	0.415988
422.302002	0.432881
422.808990	0.439869
423.319000	0.449573
423.834015	0.462142
424.352997	0.474711
424.876007	0.483459
425.402008	0.489291
425.933014	0.495626
426.467010	0.514178
427.005005	0.518351
427.546997	0.522775
428.092010	0.531573
428.640991	0.543690
429.194000	0.551131
429.750000	0.556460
430.308990	0.558170
430.872009	0.560332
431.437988	0.565410
432.006989	0.566817
432.579010	0.569231
433.154999	0.576219
433.734009	0.578331
434.316010	0.582202
434.901001	0.589693
435.489990	0.579135
436.080994	0.588285
436.675995	0.594922
437.273987	0.598139
437.873993	0.599195
438.477997	0.603670
439.084991	0.609351
439.695007	0.611111
440.307007	0.615083
440.923004	0.619558
441.541992	0.621870
442.164001	0.624485
442.789001	0.632680
443.416992	0.636451
444.048004	0.640724
444.683014	0.646355
445.320007	0.648869
445.959991	0.651333
446.604004	0.660181
447.251007	0.665360
447.901001	0.669432
448.553986	0.676773
449.209991	0.685269
449.869995	0.687632
450.532990	0.695878
451.200012	0.702112
451.869995	0.709301
452.542999	0.714932
453.220001	0.722524
453.901001	0.729110
454.584991	0.739819
455.273010	0.744696
455.964996	0.753293
456.660004	0.750679
457.359009	0.754600
458.062988	0.741378
458.769989	0.730568
459.480988	0.717094
460.196991	0.707542
460.915985	0.686225
461.640015	0.680694
462.368988	0.666868
463.101990	0.664204
463.838989	0.655556
464.580994	0.652942
465.328003	0.645350
466.079987	0.647713
466.835999	0.645601
467.597992	0.641328
468.364990	0.639769
469.136993	0.648065
469.914001	0.653394
470.696991	0.660935
471.484985	0.663751
472.278992	0.671896
473.079010	0.672952
473.885010	0.684314
474.696991	0.683108
475.515015	0.690297
476.338989	0.692007
477.170013	0.697939
478.007996	0.701106
478.851990	0.706235
479.703003	0.706587
480.559998	0.711514
481.424988	0.711564
482.298004	0.711966
483.177002	0.712067
484.063995	0.713122
484.959015	0.713173
485.862000	0.714279
486.773010	0.714279
487.691986	0.717396
488.619995	0.717497
489.554993	0.719156
490.500000	0.719759
491.453003	0.720111
492.415985	0.721116
493.388000	0.722172
494.368988	0.722424
495.359009	0.726043
496.359985	0.726043
497.369995	0.728608
498.390991	0.729915
499.420990	0.731524
500.463013	0.731926
501.515015	0.736400
502.578003	0.736501
503.652008	0.743288
504.737000	0.743640
505.834015	0.748014
506.942993	0.749522
508.062988	0.754047
509.196014	0.755907
510.341003	0.758120
511.498993	0.758321
512.669006	0.748466
513.853027	0.743238
515.049011	0.737607
516.260010	0.728457
517.484009	0.716290
518.721985	0.699900
519.973999	0.683460
521.239990	0.669935
522.521973	0.655053
523.817993	0.640624
525.129028	0.625892
526.455994	0.608949
527.797974	0.595173
529.156982	0.581196
530.531006	0.566968
531.921997	0.558019
533.330017	0.537003
534.755005	0.530015
536.197021	0.517496
537.656006	0.499598
539.132996	0.485420
540.629028	0.475164
542.142029	0.469181
543.674988	0.465209
545.226013	0.454852
546.796021	0.456059
548.385986	0.445652
549.994995	0.428407
551.625000	0.417546
553.275024	0.411362
554.945984	0.400905
556.637024	0.388386
558.349976	0.352640
560.083984	0.321720
561.841003	0.290749
563.619019	0.252991
565.419983	0.222021
567.244019	0.255555
569.091003	0.267069
570.960999	0.275515
572.854980	0.269432
574.773010	0.259728
576.716003	0.232227
578.682983	0.202564
580.676025	0.154449
582.693970	0.116893
584.737000	0.066667
586.807007	0.043338
588.903015	0.034741
591.026001	0.029713
593.176025	0.024032
595.354004	0.020362
597.559021	0.019206
599.793030	0.019558
602.054993	0.022272
604.346985	0.024937
606.666992	0.024635
609.017029	0.023429
611.398010	0.024686
613.807983	0.027049
616.250000	0.030920
618.721985	0.036802
621.226013	0.041177
623.762024	0.045752
626.330017	0.109452
628.931030	0.172046
631.565002	0.257768
634.232971	0.344344
636.934021	0.429663
639.669983	0.509753
642.440002	0.577928
645.245972	0.609653
648.085999	0.608195
650.963013	0.595324
653.875977	0.575616
656.825989	0.551583
659.812988	0.517395
662.836975	0.473002
665.898987	0.419055
669.000000	0.394821
