# Regular High Pressure Sodium Lamp, warmup after 5-7 sec
#
#    Spectral data Copyright (c) 1998-2009 by I.N. Galidakis          
#                                                                     
#    Extracted from page:                                             
#    <http://ioannis.virtualcomposer2000.com/spectroscope/amici.html> 
#                                                                     
#    This data is distributed in the hope that it will be useful,     
#    but WITHOUT ANY WARRANTY; without even the implied warranty of   
#    MERCHANTABILITY or FITNESS FOR A PARTICULAR PURPOSE.  See the    
#    CCL 3.0 Creative Commons License 3.0 for more details.           
#                                                                     
#    You should have received a copy of the CCL 3.0                   
#    along with this program.  If not, see:                           
#    <http://creativecommons.org/licenses/by/3.0/>.                   
#
404.756989	0.015686
404.901001	0.015686
405.054993	0.007843
405.221008	0.007843
405.398010	0.007843
405.584991	0.007843
405.782013	0.007843
405.989990	0.007843
406.208008	0.007843
406.436005	0.007843
406.674011	0.000000
406.920990	0.000000
407.177002	0.000000
407.442993	0.000000
407.717010	0.000000
408.000000	0.000000
408.291992	0.000000
408.592010	0.000000
408.901001	0.000000
409.217987	0.000000
409.541992	0.000000
409.875000	0.000000
410.214996	0.000000
410.562988	0.000000
410.917999	0.000000
411.279999	0.000000
411.649994	0.000000
412.026001	0.000000
412.408997	0.000000
412.799011	0.000000
413.195007	0.000000
413.596985	0.000000
414.006012	0.000000
414.420990	0.000000
414.842010	0.000000
415.269012	0.000000
415.701996	0.000000
416.140015	0.000000
416.584015	0.000000
417.032990	0.000000
417.487000	0.000000
417.946991	0.000000
418.411987	0.000000
418.881989	0.000000
419.355988	0.000000
419.835999	0.000000
420.320007	0.000000
420.808990	0.000000
421.302002	0.000000
421.799988	0.000000
422.302002	0.000000
422.808990	0.000000
423.319000	0.000000
423.834015	0.000000
424.352997	0.000000
424.876007	0.000000
425.402008	0.000000
425.933014	0.000000
426.467010	0.004827
427.005005	0.004827
427.546997	0.002413
428.092010	0.002413
428.640991	0.000000
429.194000	0.000000
429.750000	0.000000
430.308990	0.000000
430.872009	0.001508
431.437988	0.005329
432.006989	0.009100
432.579010	0.009201
433.154999	0.010156
433.734009	0.024686
434.316010	0.055757
434.901001	0.079437
435.489990	0.045903
436.080994	0.023881
436.675995	0.004877
437.273987	0.001659
437.873993	0.004977
438.477997	0.007843
439.084991	0.004977
439.695007	0.002614
440.307007	0.000804
440.923004	0.000804
441.541992	0.000804
442.164001	0.000804
442.789001	0.000804
443.416992	0.000804
444.048004	0.000804
444.683014	0.000804
445.320007	0.001609
445.959991	0.001609
446.604004	0.001609
447.251007	0.001609
447.901001	0.001609
448.553986	0.001609
449.209991	0.001609
449.869995	0.001609
450.532990	0.004223
451.200012	0.004223
451.869995	0.004223
452.542999	0.004223
453.220001	0.004223
453.901001	0.004223
454.584991	0.004223
455.273010	0.004223
455.964996	0.008597
456.660004	0.008547
457.359009	0.009150
458.062988	0.010759
458.769989	0.008949
459.480988	0.009754
460.196991	0.010156
460.915985	0.008547
461.640015	0.011513
462.368988	0.050276
463.101990	0.038160
463.838989	0.026144
464.580994	0.040674
465.328003	0.041679
466.079987	0.066868
466.835999	0.134087
467.597992	0.119306
468.364990	0.077878
469.136993	0.044495
469.914001	0.043238
470.696991	0.040573
471.484985	0.031272
472.278992	0.068778
473.079010	0.104072
473.885010	0.087029
474.696991	0.067069
475.515015	0.048668
476.338989	0.058572
477.170013	0.065108
478.007996	0.065410
478.851990	0.102916
479.703003	0.149874
480.559998	0.202464
481.424988	0.143037
482.298004	0.170035
483.177002	0.220161
484.063995	0.196229
484.959015	0.139216
485.862000	0.120664
486.773010	0.137406
487.691986	0.135194
488.619995	0.143389
489.554993	0.148617
490.500000	0.246003
491.453003	0.308698
492.415985	0.181649
493.388000	0.140271
494.368988	0.133635
495.359009	0.139165
496.359985	0.153444
497.369995	0.159075
498.390991	0.167270
499.420990	0.176622
500.463013	0.193615
501.515015	0.215636
502.578003	0.219809
503.652008	0.213826
504.737000	0.225189
505.834015	0.236149
506.942993	0.245802
508.062988	0.254801
509.196014	0.267220
510.341003	0.276420
511.498993	0.283861
512.669006	0.282906
513.853027	0.298391
515.049011	0.316692
516.260010	0.323630
517.484009	0.320463
518.721985	0.319457
519.973999	0.325340
521.239990	0.333434
522.521973	0.338562
523.817993	0.356159
525.129028	0.350428
526.455994	0.352841
527.797974	0.371745
529.156982	0.365309
530.531006	0.353997
531.921997	0.365913
533.330017	0.370186
534.755005	0.379437
536.197021	0.386425
537.656006	0.378683
539.132996	0.399598
540.629028	0.350528
542.142029	0.350428
543.674988	0.634440
545.226013	0.670941
546.796021	0.606485
548.385986	0.396883
549.994995	0.354198
551.625000	0.370890
553.275024	0.375365
554.945984	0.414630
556.637024	0.409552
558.349976	0.379638
560.083984	0.365008
561.841003	0.361438
563.619019	0.338814
565.419983	0.324786
567.244019	0.332680
569.091003	0.353293
570.960999	0.370890
572.854980	0.310709
574.773010	0.347160
576.716003	0.467120
578.682983	0.455204
580.676025	0.401005
582.693970	0.348065
584.737000	0.442484
586.807007	0.739417
588.903015	0.793262
591.026001	0.768879
593.176025	0.619859
595.354004	0.472901
597.559021	0.479990
599.793030	0.494168
602.054993	0.488185
604.346985	0.488085
606.666992	0.498844
609.017029	0.491855
611.398010	0.532730
613.807983	0.544394
616.250000	0.529462
618.721985	0.564102
621.226013	0.555455
623.762024	0.468980
626.330017	0.456159
628.931030	0.491202
631.565002	0.528406
634.232971	0.521921
636.934021	0.424937
639.669983	0.394469
642.440002	0.406787
645.245972	0.417396
648.085999	0.451534
650.963013	0.461237
653.875977	0.433836
656.825989	0.396028
659.812988	0.350327
662.836975	0.281347
665.898987	0.208095
669.000000	0.088839
